#L energy(eV)  Id  If  I0  I1  I2  Is  time log(I0/I1)

  6910.75  3.0961  0.1070  2.7783  4.8085  3.2217 1   3.00 -0.5486
  6915.75  3.1605  0.1072  2.7762  4.8232  3.2402 2   3.00 -0.5523
  6920.75  3.1551  0.1092  2.7852  4.8651  3.2791 0   3.00 -0.5578
  6925.75  3.1571  0.1097  2.7807  4.8851  3.3044 1   3.00 -0.5635
  6930.75  3.1482  0.1102  2.7859  4.9172  3.3377 6   3.00 -0.5682
  6935.75  3.1488  0.1102  2.7812  4.9401  3.3650 1   3.00 -0.5745
  6940.75  3.1399  0.1106  2.7806  4.9608  3.3910 3   3.00 -0.5789
  6945.75  3.1402  0.1114  2.7821  4.9934  3.4250 2   3.00 -0.5849
  6950.75  3.1309  0.1114  2.7812  5.0136  3.4488 3   3.00 -0.5893
  6955.75  3.1313  0.1113  2.7756  5.0325  3.4739 2   3.00 -0.5951
  6960.75  3.1218  0.1124  2.7805  5.0678  3.5099 2   3.00 -0.6003
  6965.75  3.1216  0.1120  2.7749  5.0883  3.5367 4   3.00 -0.6063
  6970.75  3.1106  0.1126  2.7821  5.1270  3.5762 4   3.00 -0.6113
  6975.75  3.1104  0.1126  2.7822  5.1521  3.6045 4   3.00 -0.6162
  6980.75  3.1012  0.1140  2.7820  5.1751  3.6338 1   3.00 -0.6207
  6985.75  3.1020  0.1142  2.7734  5.1892  3.6551 2   3.00 -0.6265
  6990.75  3.0916  0.1152  2.7803  5.2279  3.6944 4   3.00 -0.6314
  6995.75  3.0913  0.1161  2.7768  5.2527  3.7241 2   3.00 -0.6374
  7000.75  3.0806  0.1167  2.7808  5.2861  3.7604 3   3.00 -0.6424
  7005.75  3.0796  0.1175  2.7833  5.3174  3.7953 1   3.00 -0.6474
  7010.75  3.0717  0.1184  2.7746  5.3276  3.8149 1   3.00 -0.6524
  7015.75  3.0705  0.1190  2.7774  5.3605  3.8506 3   3.00 -0.6575
  7020.75  3.0612  0.1196  2.7778  5.3862  3.8815 1   3.00 -0.6622
  7025.75  3.0588  0.1213  2.7814  5.4197  3.9189 3   3.00 -0.6671
  7030.75  3.0500  0.1214  2.7793  5.4457  3.9505 2   3.00 -0.6726
  7035.75  3.0486  0.1224  2.7791  5.4735  3.9840 4   3.00 -0.6778
  7040.75  3.0389  0.1230  2.7823  5.5051  4.0179 5   3.00 -0.6824
  7045.75  3.0381  0.1242  2.7817  5.5316  4.0496 5   3.00 -0.6874
  7050.75  3.0296  0.1246  2.7781  5.5527  4.0778 1   3.00 -0.6925
  7055.75  3.0278  0.1266  2.7802  5.5840  4.1125 1   3.00 -0.6974
  7060.75  3.0177  0.1272  2.7852  5.6189  4.1495 9   3.00 -0.7018
  7065.75  3.0168  0.1285  2.7828  5.6438  4.1802 2   3.00 -0.7071
  7070.75  3.0083  0.1300  2.7784  5.6619  4.2044 2   3.00 -0.7119
  7075.75  3.0086  0.1318  2.7774  5.6850  4.2316 2   3.00 -0.7163
  7080.75  2.9882  0.1349  2.7854  5.7271  4.2719 2   3.00 -0.7208
  7081.05  3.0053  0.1345  2.7808  5.7190  4.2670 5   3.00 -0.7210
  7081.35  3.0064  0.1352  2.7852  5.7290  4.2750 2   3.00 -0.7212
  7081.65  3.0072  0.1352  2.7824  5.7244  4.2726 2   3.00 -0.7214
  7081.95  3.0086  0.1353  2.7766  5.7148  4.2653 2   3.00 -0.7218
  7082.25  3.0075  0.1352  2.7815  5.7249  4.2733 2   3.00 -0.7218
  7082.55  3.0078  0.1357  2.7789  5.7195  4.2698 3   3.00 -0.7218
  7082.85  3.0067  0.1357  2.7822  5.7282  4.2771 1   3.00 -0.7222
  7083.15  3.0079  0.1361  2.7787  5.7209  4.2717 2   3.00 -0.7222
  7083.45  3.0060  0.1363  2.7850  5.7361  4.2838 2   3.00 -0.7225
  7083.75  3.0062  0.1357  2.7831  5.7316  4.2816 5   3.00 -0.7224
  7084.05  3.0064  0.1363  2.7824  5.7321  4.2816 1   3.00 -0.7228
  7084.35  3.0061  0.1367  2.7816  5.7310  4.2817 1   3.00 -0.7229
  7084.65  3.0054  0.1372  2.7832  5.7359  4.2856 3   3.00 -0.7232
  7084.95  3.0055  0.1370  2.7823  5.7367  4.2861 5   3.00 -0.7236
  7085.25  3.0058  0.1370  2.7805  5.7332  4.2847 3   3.00 -0.7237
  7085.55  3.0050  0.1374  2.7814  5.7373  4.2886 0   3.00 -0.7240
  7085.85  3.0050  0.1379  2.7812  5.7374  4.2888 2   3.00 -0.7241
  7086.15  3.0048  0.1381  2.7817  5.7388  4.2900 1   3.00 -0.7242
  7086.45  3.0046  0.1382  2.7830  5.7434  4.2939 1   3.00 -0.7245
  7086.75  3.0043  0.1387  2.7820  5.7407  4.2922 1   3.00 -0.7244
  7087.05  3.0038  0.1390  2.7830  5.7444  4.2955 2   3.00 -0.7247
  7087.35  3.0039  0.1392  2.7834  5.7452  4.2963 6   3.00 -0.7247
  7087.65  3.0041  0.1391  2.7813  5.7419  4.2942 4   3.00 -0.7248
  7087.95  2.9983  0.1394  2.7847  5.7488  4.2995 0   3.00 -0.7248
  7088.25  3.0026  0.1400  2.7848  5.7513  4.3026 3   3.00 -0.7253
  7088.55  3.0024  0.1398  2.7839  5.7512  4.3024 2   3.00 -0.7255
  7088.85  3.0040  0.1400  2.7803  5.7435  4.2960 1   3.00 -0.7255
  7089.15  3.0029  0.1407  2.7825  5.7512  4.3023 4   3.00 -0.7261
  7089.45  3.0022  0.1414  2.7819  5.7536  4.3049 3   3.00 -0.7267
  7089.75  3.0027  0.1412  2.7823  5.7535  4.3045 2   3.00 -0.7265
  7090.05  3.0017  0.1418  2.7862  5.7621  4.3110 2   3.00 -0.7266
  7090.35  3.0028  0.1409  2.7795  5.7493  4.3014 2   3.00 -0.7268
  7090.65  3.0012  0.1419  2.7854  5.7620  4.3116 4   3.00 -0.7269
  7090.95  3.0020  0.1419  2.7831  5.7574  4.3077 2   3.00 -0.7269
  7091.25  3.0014  0.1424  2.7855  5.7648  4.3138 3   3.00 -0.7273
  7091.55  3.0015  0.1424  2.7819  5.7581  4.3085 2   3.00 -0.7275
  7091.85  3.0013  0.1424  2.7803  5.7574  4.3087 2   3.00 -0.7279
  7092.15  3.0016  0.1431  2.7822  5.7610  4.3114 3   3.00 -0.7279
  7092.45  3.0018  0.1429  2.7794  5.7565  4.3087 2   3.00 -0.7281
  7092.75  3.0016  0.1432  2.7802  5.7587  4.3106 2   3.00 -0.7282
  7093.05  3.0009  0.1436  2.7814  5.7643  4.3143 0   3.00 -0.7287
  7093.35  3.0004  0.1434  2.7825  5.7648  4.3148 0   3.00 -0.7284
  7093.65  3.0013  0.1445  2.7800  5.7608  4.3116 4   3.00 -0.7286
  7093.95  3.0013  0.1447  2.7784  5.7596  4.3099 2   3.00 -0.7290
  7094.25  2.9999  0.1449  2.7840  5.7712  4.3193 1   3.00 -0.7290
  7094.55  3.0006  0.1454  2.7815  5.7683  4.3168 2   3.00 -0.7294
  7094.85  2.9949  0.1457  2.7835  5.7708  4.3175 3   3.00 -0.7291
  7095.15  3.0002  0.1464  2.7814  5.7676  4.3157 1   3.00 -0.7293
  7095.45  3.0006  0.1466  2.7803  5.7665  4.3147 1   3.00 -0.7295
  7095.75  3.0002  0.1467  2.7813  5.7720  4.3183 5   3.00 -0.7301
  7096.05  2.9999  0.1473  2.7821  5.7766  4.3215 3   3.00 -0.7306
  7096.35  3.0012  0.1475  2.7771  5.7667  4.3132 4   3.00 -0.7307
  7096.65  2.9992  0.1481  2.7847  5.7816  4.3240 0   3.00 -0.7305
  7096.95  2.9993  0.1488  2.7842  5.7829  4.3244 2   3.00 -0.7309
  7097.25  3.0003  0.1486  2.7796  5.7755  4.3181 1   3.00 -0.7313
  7097.55  2.9999  0.1495  2.7819  5.7812  4.3219 2   3.00 -0.7315
  7097.85  2.9997  0.1495  2.7807  5.7785  4.3199 1   3.00 -0.7315
  7098.15  2.9991  0.1506  2.7846  5.7868  4.3252 2   3.00 -0.7315
  7098.45  2.9999  0.1504  2.7812  5.7815  4.3203 5   3.00 -0.7318
  7098.75  3.0011  0.1502  2.7758  5.7713  4.3122 3   3.00 -0.7319
  7099.05  2.9999  0.1513  2.7801  5.7810  4.3187 1   3.00 -0.7321
  7099.35  3.0002  0.1516  2.7794  5.7796  4.3168 5   3.00 -0.7321
  7099.65  3.0001  0.1522  2.7807  5.7823  4.3172 1   3.00 -0.7321
  7099.95  3.0006  0.1530  2.7795  5.7838  4.3170 6   3.00 -0.7328
  7100.25  3.0005  0.1533  2.7804  5.7850  4.3164 5   3.00 -0.7327
  7100.55  3.0003  0.1542  2.7817  5.7888  4.3180 4   3.00 -0.7329
  7100.85  3.0006  0.1546  2.7814  5.7888  4.3167 1   3.00 -0.7330
  7101.15  3.0006  0.1549  2.7796  5.7876  4.3144 1   3.00 -0.7334
  7101.45  2.9998  0.1559  2.7835  5.7957  4.3188 2   3.00 -0.7334
  7101.75  3.0007  0.1569  2.7817  5.7936  4.3153 3   3.00 -0.7337
  7102.05  2.9953  0.1574  2.7854  5.7982  4.3166 2   3.00 -0.7332
  7102.35  3.0011  0.1580  2.7816  5.7917  4.3093 3   3.00 -0.7334
  7102.65  3.0019  0.1587  2.7805  5.7892  4.3054 1   3.00 -0.7334
  7102.95  3.0019  0.1597  2.7821  5.7937  4.3067 1   3.00 -0.7336
  7103.25  3.0020  0.1601  2.7832  5.7970  4.3062 1   3.00 -0.7337
  7103.55  3.0037  0.1604  2.7794  5.7906  4.2981 2   3.00 -0.7340
  7103.85  3.0023  0.1620  2.7857  5.8031  4.3044 5   3.00 -0.7339
  7104.15  3.0031  0.1629  2.7839  5.8013  4.2997 4   3.00 -0.7342
  7104.45  3.0042  0.1630  2.7809  5.7951  4.2912 5   3.00 -0.7342
  7104.75  3.0051  0.1648  2.7818  5.7978  4.2886 2   3.00 -0.7344
  7105.05  3.0051  0.1657  2.7840  5.8037  4.2886 2   3.00 -0.7346
  7105.35  3.0055  0.1663  2.7836  5.8028  4.2825 2   3.00 -0.7346
  7105.65  3.0064  0.1677  2.7858  5.8070  4.2799 3   3.00 -0.7345
  7105.95  3.0076  0.1689  2.7829  5.8017  4.2693 1   3.00 -0.7346
  7106.25  3.0090  0.1703  2.7829  5.8048  4.2652 5   3.00 -0.7352
  7106.55  3.0092  0.1714  2.7862  5.8113  4.2613 1   3.00 -0.7351
  7106.85  3.0120  0.1724  2.7814  5.8011  4.2447 2   3.00 -0.7351
  7107.15  3.0141  0.1738  2.7808  5.7999  4.2331 2   3.00 -0.7351
  7107.45  3.0164  0.1759  2.7778  5.7949  4.2178 6   3.00 -0.7353
  7107.75  3.0169  0.1781  2.7878  5.8133  4.2166 3   3.00 -0.7349
  7108.05  3.0209  0.1791  2.7814  5.8001  4.1904 0   3.00 -0.7349
  7108.35  3.0248  0.1809  2.7781  5.7924  4.1652 6   3.00 -0.7348
  7108.65  3.0300  0.1831  2.7745  5.7827  4.1340 0   3.00 -0.7344
  7108.95  3.0334  0.1861  2.7815  5.7974  4.1147 3   3.00 -0.7344
  7109.25  3.0395  0.1888  2.7818  5.7960  4.0756 5   3.00 -0.7341
  7109.55  3.0423  0.1923  2.7815  5.7924  4.0229 4   3.00 -0.7336
  7109.85  3.0581  0.1961  2.7843  5.7958  3.9571 1   3.00 -0.7331
  7110.15  3.0742  0.2017  2.7847  5.7940  3.8579 7   3.00 -0.7327
  7110.45  3.0980  0.2083  2.7822  5.7813  3.7106 3   3.00 -0.7314
  7110.75  3.1285  0.2171  2.7842  5.7768  3.5225 2   3.00 -0.7299
  7111.05  3.1688  0.2291  2.7777  5.7532  3.2801 4   3.00 -0.7281
  7111.35  3.2092  0.2478  2.7814  5.7430  3.0380 2   3.00 -0.7250
  7111.65  3.2467  0.2677  2.7827  5.7247  2.8197 3   3.00 -0.7214
  7111.95  3.2780  0.2833  2.7842  5.7133  2.6439 3   3.00 -0.7188
  7112.25  3.3032  0.2900  2.7830  5.7080  2.5094 6   3.00 -0.7183
  7112.55  3.3220  0.2865  2.7806  5.7098  2.4051 1   3.00 -0.7195
  7112.85  3.3366  0.2837  2.7821  5.7209  2.3196 2   3.00 -0.7209
  7113.15  3.3512  0.2834  2.7789  5.7183  2.2400 3   3.00 -0.7216
  7113.45  3.3629  0.2896  2.7857  5.7313  2.1744 2   3.00 -0.7214
  7113.75  3.3759  0.3006  2.7829  5.7136  2.1029 1   3.00 -0.7193
  7114.05  3.3880  0.3188  2.7815  5.6923  2.0375 3   3.00 -0.7161
  7114.35  3.3978  0.3450  2.7832  5.6669  1.9801 1   3.00 -0.7110
  7114.65  3.4072  0.3762  2.7834  5.6334  1.9300 0   3.00 -0.7050
  7114.95  3.4147  0.4103  2.7840  5.5955  1.8882 3   3.00 -0.6981
  7115.25  3.4212  0.4444  2.7820  5.5529  1.8535 3   3.00 -0.6911
  7115.55  3.4256  0.4800  2.7862  5.5211  1.8281 1   3.00 -0.6839
  7115.85  3.4316  0.5174  2.7839  5.4763  1.8014 1   3.00 -0.6766
  7116.15  3.4355  0.5592  2.7838  5.4321  1.7744 2   3.00 -0.6685
  7116.45  3.4417  0.6029  2.7808  5.3787  1.7399 0   3.00 -0.6597
  7116.75  3.4488  0.6471  2.7812  5.3325  1.7003 0   3.00 -0.6509
  7117.05  3.4502  0.6951  2.7821  5.2819  1.6479 3   3.00 -0.6411
  7117.35  3.4687  0.7469  2.7831  5.2294  1.5844 2   3.00 -0.6307
  7117.65  3.4818  0.8039  2.7858  5.1759  1.5104 1   3.00 -0.6195
  7117.95  3.4971  0.8647  2.7827  5.1053  1.4259 2   3.00 -0.6069
  7118.25  3.5138  0.9300  2.7818  5.0310  1.3395 1   3.00 -0.5925
  7118.55  3.5292  1.0055  2.7846  4.9612  1.2566 1   3.00 -0.5776
  7118.85  3.5442  1.0883  2.7860  4.8806  1.1734 2   3.00 -0.5607
  7119.15  3.5592  1.1756  2.7822  4.7808  1.0908 2   3.00 -0.5414
  7119.45  3.5742  1.2692  2.7813  4.6842  1.0124 1   3.00 -0.5213
  7119.75  3.5880  1.3594  2.7809  4.5926  0.9394 1   3.00 -0.5017
  7120.05  3.6003  1.4436  2.7819  4.5141  0.8718 5   3.00 -0.4841
  7120.35  3.6124  1.5168  2.7830  4.4467  0.8107 0   3.00 -0.4686
  7120.65  3.6210  1.5750  2.7812  4.3899  0.7576 5   3.00 -0.4564
  7120.95  3.6317  1.6369  2.7816  4.3360  0.7093 1   3.00 -0.4439
  7121.25  3.6400  1.6936  2.7836  4.2906  0.6677 2   3.00 -0.4327
  7121.55  3.6477  1.7437  2.7773  4.2343  0.6290 3   3.00 -0.4217
  7121.85  3.6530  1.7999  2.7831  4.2002  0.5986 3   3.00 -0.4115
  7122.15  3.6587  1.8488  2.7835  4.1657  0.5714 0   3.00 -0.4032
  7122.45  3.6620  1.8886  2.7841  4.1407  0.5480 0   3.00 -0.3970
  7122.75  3.6669  1.9252  2.7842  4.1192  0.5278 3   3.00 -0.3917
  7123.05  3.6708  1.9614  2.7822  4.0957  0.5094 4   3.00 -0.3867
  7123.35  3.6722  1.9953  2.7792  4.0723  0.4927 1   3.00 -0.3821
  7123.65  3.6760  2.0436  2.7809  4.0445  0.4770 0   3.00 -0.3746
  7123.95  3.6759  2.0986  2.7842  4.0134  0.4623 0   3.00 -0.3657
  7124.25  3.6808  2.1537  2.7822  3.9739  0.4473 0   3.00 -0.3565
  7124.55  3.6725  2.2223  2.7819  3.9223  0.4319 3   3.00 -0.3435
  7124.85  3.6862  2.2930  2.7828  3.8730  0.4179 4   3.00 -0.3306
  7125.15  3.6896  2.3635  2.7812  3.8168  0.4034 4   3.00 -0.3165
  7125.45  3.6888  2.4352  2.7810  3.7609  0.3897 0   3.00 -0.3019
  7125.75  3.6948  2.5150  2.7828  3.7046  0.3766 2   3.00 -0.2861
  7126.05  3.6974  2.5894  2.7842  3.6501  0.3635 2   3.00 -0.2708
  7126.35  3.6962  2.6599  2.7851  3.5983  0.3505 1   3.00 -0.2562
  7126.65  3.7029  2.7327  2.7822  3.5383  0.3370 0   3.00 -0.2404
  7126.95  3.7024  2.8080  2.7856  3.4886  0.3243 1   3.00 -0.2250
  7127.25  3.7092  2.8684  2.7825  3.4339  0.3110 2   3.00 -0.2103
  7127.55  3.7124  2.9382  2.7813  3.3805  0.2978 2   3.00 -0.1951
  7127.85  3.7138  3.0067  2.7815  3.3285  0.2847 3   3.00 -0.1795
  7128.15  3.7173  3.0668  2.7831  3.2835  0.2721 0   3.00 -0.1653
  7128.45  3.7176  3.1282  2.7836  3.2346  0.2597 1   3.00 -0.1502
  7128.75  3.7209  3.1891  2.7861  3.1922  0.2477 2   3.00 -0.1361
  7129.05  3.7241  3.2463  2.7839  3.1417  0.2359 3   3.00 -0.1209
  7129.35  3.7268  3.2979  2.7809  3.0912  0.2252 1   3.00 -0.1058
  7129.65  3.7271  3.3572  2.7839  3.0467  0.2159 3   3.00 -0.0902
  7129.95  3.7299  3.4077  2.7822  2.9990  0.2076 1   3.00 -0.0750
  7130.25  3.7301  3.4655  2.7845  2.9548  0.2007 1   3.00 -0.0593
  7130.55  3.7325  3.5142  2.7866  2.9143  0.1957 1   3.00 -0.0448
  7130.85  3.7312  3.5494  2.7798  2.8680  0.1918 0   3.00 -0.0312
  7131.15  3.7325  3.5855  2.7786  2.8292  0.1898 1   3.00 -0.0180
  7131.45  3.7216  3.6400  2.7833  2.7922  0.1896 0   3.00 -0.0032
  7131.75  3.7324  3.6747  2.7872  2.7655  0.1913 1   3.00  0.0078
  7132.05  3.7345  3.6974  2.7808  2.7324  0.1934 4   3.00  0.0176
  7132.35  3.7323  3.7173  2.7817  2.7140  0.1973 0   3.00  0.0246
  7132.65  3.7301  3.7347  2.7811  2.6992  0.2018 2   3.00  0.0299
  7132.95  3.7307  3.7452  2.7854  2.6969  0.2075 2   3.00  0.0323
  7133.25  3.7274  3.7461  2.7806  2.6877  0.2126 3   3.00  0.0340
  7133.55  3.7282  3.7467  2.7833  2.6947  0.2188 1   3.00  0.0324
  7133.85  3.7268  3.7308  2.7842  2.7083  0.2254 3   3.00  0.0276
  7134.15  3.7250  3.7219  2.7838  2.7218  0.2316 3   3.00  0.0225
  7134.45  3.7228  3.6966  2.7798  2.7384  0.2377 2   3.00  0.0150
  7134.75  3.7205  3.6735  2.7860  2.7717  0.2443 1   3.00  0.0051
  7135.05  3.7210  3.6468  2.7844  2.7996  0.2504 5   3.00 -0.0054
  7135.35  3.7197  3.6106  2.7814  2.8238  0.2553 2   3.00 -0.0151
  7135.65  3.7183  3.5771  2.7842  2.8630  0.2611 5   3.00 -0.0279
  7135.95  3.7183  3.5419  2.7818  2.8953  0.2658 2   3.00 -0.0400
  7136.25  3.7157  3.5049  2.7834  2.9336  0.2704 2   3.00 -0.0525
  7136.55  3.7168  3.4623  2.7828  2.9727  0.2745 0   3.00 -0.0660
  7136.85  3.7148  3.4203  2.7794  3.0089  0.2777 0   3.00 -0.0793
  7137.15  3.7150  3.3876  2.7834  3.0472  0.2806 0   3.00 -0.0905
  7137.45  3.7147  3.3474  2.7842  3.0872  0.2829 4   3.00 -0.1033
  7137.75  3.7144  3.3122  2.7835  3.1192  0.2840 0   3.00 -0.1138
  7138.05  3.7136  3.2777  2.7824  3.1503  0.2848 0   3.00 -0.1242
  7138.35  3.7016  3.2506  2.7870  3.1849  0.2856 1   3.00 -0.1335
  7138.65  3.7127  3.2151  2.7827  3.2090  0.2850 2   3.00 -0.1426
  7138.95  3.7130  3.1874  2.7845  3.2383  0.2848 2   3.00 -0.1510
  7139.25  3.7146  3.1569  2.7813  3.2592  0.2838 0   3.00 -0.1586
  7139.55  3.7145  3.1317  2.7842  3.2871  0.2836 0   3.00 -0.1660
  7139.85  3.7137  3.1053  2.7828  3.3085  0.2830 3   3.00 -0.1731
  7140.15  3.7142  3.0847  2.7828  3.3266  0.2825 2   3.00 -0.1785
  7140.75  3.6899  3.0444  2.7857  3.3666  0.2828 3   3.00 -0.1894
  7141.83  3.7116  2.9859  2.7827  3.4098  0.2852 0   3.00 -0.2032
  7142.93  3.7104  2.9411  2.7833  3.4471  0.2912 0   3.00 -0.2139
  7144.04  3.7108  2.9023  2.7813  3.4762  0.2968 5   3.00 -0.2230
  7145.18  3.7115  2.8687  2.7817  3.5039  0.2978 2   3.00 -0.2308
  7146.33  3.7014  2.8363  2.7796  3.5274  0.2924 2   3.00 -0.2382
  7147.51  3.7114  2.8033  2.7812  3.5613  0.2827 3   3.00 -0.2472
  7148.70  3.7154  2.7709  2.7809  3.5901  0.2727 2   3.00 -0.2554
  7149.91  3.7179  2.7361  2.7802  3.6207  0.2668 0   3.00 -0.2642
  7151.14  3.7178  2.7137  2.7870  3.6586  0.2648 0   3.00 -0.2721
  7152.39  3.7194  2.6844  2.7799  3.6714  0.2621 0   3.00 -0.2781
  7153.66  3.7086  2.6623  2.7822  3.6963  0.2626 1   3.00 -0.2841
  7154.95  3.7176  2.6500  2.7840  3.7166  0.2660 1   3.00 -0.2889
  7156.26  3.7185  2.6392  2.7854  3.7313  0.2703 5   3.00 -0.2924
  7157.58  3.7199  2.6369  2.7849  3.7404  0.2737 1   3.00 -0.2950
  7158.93  3.7192  2.6412  2.7866  3.7480  0.2751 2   3.00 -0.2964
  7160.29  3.7214  2.6564  2.7873  3.7467  0.2756 2   3.01 -0.2958
  7161.68  3.7119  2.6792  2.7909  3.7406  0.2770 0   3.01 -0.2929
  7163.08  3.7240  2.7063  2.7907  3.7287  0.2796 2   3.01 -0.2898
  7164.50  3.7238  2.7353  2.7860  3.7051  0.2816 2   3.01 -0.2851
  7165.94  3.7264  2.7708  2.7908  3.6932  0.2838 2   3.01 -0.2802
  7167.40  3.7284  2.8106  2.7964  3.6822  0.2854 0   3.01 -0.2752
  7168.88  3.7205  2.8485  2.7964  3.6586  0.2861 1   3.01 -0.2687
  7170.38  3.7326  2.8873  2.8003  3.6459  0.2892 1   3.02 -0.2639
  7171.89  3.7334  2.9221  2.7993  3.6252  0.2942 0   3.02 -0.2586
  7173.43  3.7355  2.9639  2.7973  3.5969  0.3010 2   3.02 -0.2514
  7174.99  3.7362  3.0143  2.8040  3.5758  0.3104 0   3.02 -0.2431
  7176.56  3.7267  3.0564  2.8091  3.5588  0.3212 0   3.03 -0.2366
  7178.15  3.7382  3.0799  2.8080  3.5430  0.3298 1   3.03 -0.2325
  7179.76  3.7421  3.1065  2.8132  3.5381  0.3348 3   3.03 -0.2293
  7181.40  3.7470  3.1253  2.8128  3.5269  0.3338 0   3.04 -0.2262
  7183.05  3.7531  3.1540  2.8206  3.5268  0.3313 1   3.04 -0.2234
  7184.72  3.7495  3.1732  2.8263  3.5284  0.3256 3   3.04 -0.2219
  7186.40  3.7666  3.1871  2.8281  3.5271  0.3160 0   3.05 -0.2209
  7188.11  3.7733  3.1996  2.8313  3.5325  0.3054 2   3.05 -0.2213
  7189.84  3.7821  3.2100  2.8353  3.5404  0.2950 3   3.06 -0.2221
  7191.58  3.7907  3.2156  2.8394  3.5534  0.2845 1   3.06 -0.2243
  7193.35  3.7885  3.2307  2.8484  3.5691  0.2778 0   3.07 -0.2256
  7195.13  3.8056  3.2283  2.8550  3.5921  0.2790 2   3.07 -0.2297
  7196.93  3.8107  3.2284  2.8578  3.6081  0.2869 1   3.08 -0.2331
  7198.75  3.8164  3.2247  2.8642  3.6363  0.3003 0   3.09 -0.2387
  7200.59  3.8114  3.2188  2.8694  3.6616  0.3169 3   3.09 -0.2438
  7202.45  3.8272  3.2143  2.8777  3.6952  0.3369 0   3.10 -0.2500
  7204.33  3.8316  3.2011  2.8842  3.7306  0.3584 0   3.11 -0.2573
  7206.23  3.8390  3.1925  2.8888  3.7629  0.3753 2   3.11 -0.2644
  7208.15  3.8374  3.1821  2.8970  3.8035  0.3811 0   3.12 -0.2723
  7210.08  3.8603  3.1704  2.9030  3.8348  0.3680 3   3.13 -0.2784
  7212.04  3.8760  3.1557  2.9054  3.8680  0.3392 0   3.14 -0.2862
  7214.01  3.8943  3.1559  2.9244  3.9232  0.3058 0   3.15 -0.2938
  7216.01  3.9015  3.1529  2.9319  3.9568  0.2752 1   3.16 -0.2998
  7218.02  3.9278  3.1471  2.9372  3.9894  0.2547 2   3.17 -0.3062
  7220.05  3.9403  3.1442  2.9449  4.0244  0.2471 7   3.18 -0.3123
  7222.10  3.9573  3.1486  2.9566  4.0612  0.2531 2   3.19 -0.3174
  7224.17  3.9573  3.1550  2.9671  4.0918  0.2718 2   3.20 -0.3214
  7226.26  3.9759  3.1669  2.9784  4.1247  0.2999 5   3.21 -0.3256
  7228.36  3.9832  3.1738  2.9884  4.1517  0.3333 4   3.22 -0.3288
  7230.49  3.9937  3.1894  3.0019  4.1828  0.3700 4   3.24 -0.3317
  7232.64  3.9938  3.2108  3.0158  4.2089  0.4062 0   3.25 -0.3333
  7234.80  4.0133  3.2291  3.0254  4.2284  0.4354 3   3.26 -0.3348
  7236.98  4.0272  3.2538  3.0382  4.2500  0.4532 4   3.28 -0.3357
  7239.19  4.0437  3.2793  3.0491  4.2673  0.4588 0   3.29 -0.3361
  7241.41  4.0516  3.3128  3.0664  4.2898  0.4548 2   3.31 -0.3357
  7243.65  4.0829  3.3422  3.0771  4.3038  0.4425 1   3.32 -0.3355
  7245.91  4.1072  3.3803  3.0976  4.3329  0.4310 2   3.34 -0.3356
  7248.19  4.1301  3.4082  3.1095  4.3475  0.4233 3   3.35 -0.3351
  7250.49  4.1407  3.4472  3.1246  4.3625  0.4238 3   3.37 -0.3338
  7252.80  4.1698  3.4772  3.1398  4.3833  0.4329 1   3.39 -0.3337
  7255.14  4.1910  3.5172  3.1584  4.4087  0.4436 2   3.40 -0.3335
  7257.49  4.2125  3.5466  3.1725  4.4275  0.4476 1   3.42 -0.3333
  7259.87  4.2284  3.5925  3.1952  4.4541  0.4442 2   3.44 -0.3322
  7262.26  4.2631  3.6253  3.2128  4.4820  0.4381 1   3.46 -0.3329
  7264.67  4.2894  3.6262  3.2290  4.5332  0.4360 4   3.48 -0.3393
  7267.10  4.3080  3.6942  3.2501  4.5439  0.4308 4   3.50 -0.3351
  7269.55  4.3425  3.7191  3.2665  4.5768  0.4229 2   3.52 -0.3373
  7272.02  4.3754  3.7455  3.2849  4.6131  0.4111 2   3.54 -0.3396
  7274.51  4.3944  3.7826  3.3134  4.6627  0.4042 1   3.57 -0.3416
  7277.02  4.4338  3.7995  3.3290  4.7034  0.4022 2   3.59 -0.3456
  7279.54  4.4652  3.8244  3.3513  4.7536  0.4006 4   3.61 -0.3496
  7282.09  4.4849  3.8520  3.3778  4.8101  0.3963 1   3.64 -0.3535
  7284.65  4.5270  3.8625  3.3977  4.8688  0.3913 3   3.66 -0.3597
  7287.24  4.5613  3.8785  3.4176  4.9164  0.3880 0   3.69 -0.3636
  7289.84  4.5829  3.9046  3.4431  4.9795  0.3965 1   3.71 -0.3690
  7292.46  4.6213  3.9275  3.4728  5.0501  0.4204 1   3.74 -0.3744
  7295.10  4.6506  3.9424  3.4968  5.1132  0.4541 2   3.77 -0.3800
  7297.76  4.6706  3.9681  3.5215  5.1722  0.4900 0   3.80 -0.3844
  7300.44  4.7099  3.9897  3.5478  5.2391  0.5236 2   3.83 -0.3898
  7303.14  4.7411  4.0161  3.5762  5.3075  0.5530 2   3.85 -0.3948
  7305.86  4.7653  4.0428  3.6043  5.3726  0.5763 4   3.88 -0.3992
  7308.59  4.8127  4.0739  3.6333  5.4420  0.5923 0   3.92 -0.4040
  7311.35  4.8461  4.0962  3.6591  5.5046  0.6009 3   3.95 -0.4084
  7314.12  4.8786  4.1338  3.6916  5.5752  0.6080 3   3.98 -0.4123
  7316.92  4.9284  4.1717  3.7248  5.6468  0.6170 4   4.01 -0.4161
  7319.73  4.9692  4.2031  3.7519  5.7087  0.6261 3   4.05 -0.4197
  7322.56  5.0017  4.2449  3.7852  5.7763  0.6355 1   4.08 -0.4227
  7325.41  5.0526  4.2864  3.8168  5.8434  0.6437 5   4.12 -0.4259
  7328.28  5.0975  4.3304  3.8560  5.9270  0.6544 4   4.15 -0.4299
  7331.17  5.1322  4.3789  3.8842  5.9754  0.6659 1   4.19 -0.4307
  7334.07  5.1846  4.4282  3.9205  6.0516  0.6854 3   4.23 -0.4341
  7337.00  5.2304  4.4720  3.9545  6.1212  0.7020 1   4.26 -0.4369
  7339.95  5.2693  4.5304  3.9950  6.1951  0.7108 2   4.30 -0.4387
  7342.91  5.3294  4.5793  4.0305  6.2651  0.7070 4   4.34 -0.4411
  7345.89  5.3834  4.6306  4.0673  6.3390  0.6922 3   4.38 -0.4437
  7348.90  5.4353  4.6882  4.1070  6.4139  0.6750 8   4.43 -0.4458
  7351.92  5.4948  4.7443  4.1477  6.4947  0.6608 7   4.47 -0.4484
  7354.96  5.5549  4.7865  4.1764  6.5548  0.6475 3   4.51 -0.4508
  7358.02  5.6021  4.8561  4.2267  6.6503  0.6407 3   4.56 -0.4533
  7361.10  5.6699  4.9119  4.2690  6.7380  0.6354 3   4.60 -0.4564
  7364.20  5.7284  4.9635  4.3106  6.8245  0.6363 2   4.65 -0.4594
  7367.31  5.7772  5.0188  4.3493  6.9047  0.6456 5   4.69 -0.4622
  7370.45  5.8419  5.0873  4.4032  7.0086  0.6688 5   4.74 -0.4648
  7373.60  5.8958  5.1358  4.4379  7.0890  0.7048 8   4.79 -0.4684
  7376.78  5.9381  5.1996  4.4865  7.1855  0.7589 3   4.84 -0.4710
  7379.97  5.9984  5.2598  4.5307  7.2823  0.8256 5   4.89 -0.4746
  7383.18  6.0515  5.3211  4.5803  7.3893  0.8877 7   4.94 -0.4783
  7386.41  6.1007  5.3857  4.6271  7.4890  0.9265 8   4.99 -0.4815
  7389.67  6.1735  5.4424  4.6785  7.6065  0.9440 4   5.04 -0.4860
  7392.93  6.2418  5.4965  4.7280  7.7182  0.9487 4   5.10 -0.4901
  7396.22  6.2982  5.5596  4.7763  7.8238  0.9514 4   5.15 -0.4935
  7399.53  6.3786  5.6247  4.8283  7.9443  0.9635 3   5.21 -0.4980
  7402.86  6.4448  5.6925  4.8858  8.0748  0.9821 3   5.26 -0.5024
  7406.20  6.5072  5.7520  4.9343  8.1840  0.9967 8   5.32 -0.5060
  7409.57  6.5865  5.8173  4.9913  8.3188  1.0122 8   5.38 -0.5108
  7412.95  6.6589  5.8710  5.0365  8.4272  1.0248 8   5.44 -0.5147
  7416.35  6.7248  5.9617  5.1073  8.5772  1.0446 3   5.50 -0.5184
  7419.78  6.8068  6.0249  5.1616  8.7059  1.0669 3   5.56 -0.5227
  7423.22  6.8821  6.0814  5.2120  8.8324  1.0958 2   5.62 -0.5275
  7426.68  6.9466  6.1640  5.2728  8.9664  1.1277 4   5.69 -0.5309
  7430.15  7.0316  6.2239  5.3262  9.0928  1.1485 6   5.75 -0.5348
  7433.65  7.1023  6.3146  5.3978  9.2514  1.1670 5   5.82 -0.5388
  7437.17  7.1949  6.3812  5.4520  9.3791  1.1753 3   5.89 -0.5425
  7440.71  7.2727  6.4708  5.5204  9.5302  1.1765 7   5.95 -0.5460
  7444.26  7.3668  6.5468  5.5792  9.6689  1.1704 5   6.02 -0.5499
  7447.84  7.4580  6.6284  5.6454  9.8221  1.1689 7   6.09 -0.5538
  7451.43  7.5356  6.7335  5.7175  9.9745  1.1778 4   6.16 -0.5565
  7455.04  7.6317  6.8132  5.7821 10.1209  1.1954 6   6.23 -0.5598
  7458.67  7.7126  6.9066  5.8434 10.2604  1.2166 1   6.31 -0.5630
  7462.32  7.8110  7.0007  5.9158 10.4252  1.2458 14   6.38 -0.5666
  7465.99  7.8902  7.1056  5.9889 10.5805  1.2840 4   6.46 -0.5691
  7469.68  7.9871  7.1873  6.0495 10.7257  1.3307 7   6.53 -0.5727
  7473.39  8.0639  7.3001  6.1336 10.9070  1.3842 10   6.61 -0.5756
  7477.11  8.1634  7.3832  6.2018 11.0725  1.4309 8   6.69 -0.5796
  7480.86  8.2496  7.4971  6.2725 11.2263  1.4720 8   6.77 -0.5821
  7484.62  8.3507  7.6012  6.3559 11.4177  1.5232 5   6.85 -0.5858
  7488.41  8.4344  7.7113  6.4319 11.5878  1.5762 9   6.93 -0.5887
  7492.21  8.5402  7.8073  6.5049 11.7612  1.6256 5   7.01 -0.5923
  7496.03  8.6315  7.9172  6.5816 11.9361  1.6634 10   7.10 -0.5953
  7499.87  8.7404  8.0138  6.6551 12.1167  1.6884 10   7.18 -0.5992
  7503.73  8.8371  8.1382  6.7428 12.3194  1.7107 5   7.27 -0.6027
  7507.61  8.9527  8.2551  6.8313 12.5329  1.7370 9   7.36 -0.6068
  7511.51  9.0496  8.3608  6.9092 12.7152  1.7661 8   7.45 -0.6100
  7515.43  9.1664  8.4665  6.9921 12.9250  1.8051 15   7.54 -0.6144
  7519.36  9.2683  8.5826  7.0761 13.1275  1.8436 8   7.63 -0.6180
  7523.32  9.3848  8.6928  7.1654 13.3468  1.8807 11   7.72 -0.6220
  7527.29  9.4911  8.8184  7.2490 13.5517  1.9108 8   7.81 -0.6256
  7531.29  9.6139  8.9295  7.3374 13.7696  1.9408 2   7.91 -0.6295
  7535.30  9.7166  9.0515  7.4244 13.9899  1.9757 7   8.00 -0.6336
  7539.33  9.8450  9.1695  7.5141 14.2223  2.0188 11   8.10 -0.6380
  7543.38  9.9513  9.2965  7.6104 14.4594  2.0644 17   8.20 -0.6418
  7547.45 10.0795  9.4144  7.6996 14.6933  2.1080 11   8.30 -0.6462
  7551.54 10.1924  9.5436  7.7964 14.9313  2.1463 17   8.40 -0.6498
  7555.65 10.3273  9.6599  7.8857 15.1696  2.1741 8   8.50 -0.6542
  7559.77 10.4414  9.8089  7.9889 15.4236  2.1988 9   8.61 -0.6578
  7563.92 10.5822  9.9266  8.0832 15.6718  2.2286 10   8.71 -0.6621
  7568.08 10.6964 10.0754  8.1814 15.9171  2.2712 12   8.82 -0.6655
  7572.27 10.8312 10.2098  8.2825 16.1850  2.3325 8   8.93 -0.6699
  7576.47 10.9486 10.3435  8.3802 16.4297  2.4036 5   9.04 -0.6732
  7580.69 11.0805 10.5046  8.4929 16.7221  2.4876 12   9.15 -0.6775
  7584.93 11.1987 10.6513  8.5902 16.9691  2.5613 13   9.26 -0.6808
  7589.19 11.3376 10.7948  8.6941 17.2470  2.6286 12   9.37 -0.6850
  7593.47 11.4634 10.9592  8.8069 17.5261  2.6872 13   9.49 -0.6882
  7597.77 11.6082 11.1015  8.9088 17.7970  2.7369 18   9.60 -0.6920
  7602.09 11.7397 11.2678  9.0217 18.0820  2.7898 15   9.72 -0.6953
  7606.42 11.8883 11.4289  9.1303 18.3711  2.8517 12   9.84 -0.6992
  7610.78 12.0173 11.6048  9.2447 18.6630  2.9227 15   9.96 -0.7025
  7615.15 12.1649 11.7591  9.3554 18.9588  2.9927 14  10.08 -0.7063
  7619.55 12.3017 11.9348  9.4677 19.2501  3.0505 11  10.20 -0.7096
  7623.96 12.4626 12.0914  9.5777 19.5513  3.1003 14  10.33 -0.7136
  7628.39 12.5979 12.2724  9.6952 19.8539  3.1557 18  10.45 -0.7168
  7632.84 12.7567 12.4503  9.8205 20.1909  3.2286 13  10.58 -0.7208
  7637.31 12.8989 12.6177  9.9278 20.4759  3.3039 18  10.71 -0.7239
  7641.80 13.0498 12.8143 10.0604 20.8324  3.3947 17  10.84 -0.7279
  7646.31 13.1899 12.9985 10.1835 21.1577  3.4777 22  10.97 -0.7312
  7650.83 13.3551 13.1761 10.3047 21.5006  3.5568 16  11.10 -0.7355
  7655.38 13.5040 13.3827 10.4420 21.8643  3.6347 18  11.24 -0.7390
  7659.94 13.6700 13.5601 10.5615 22.2049  3.7029 24  11.37 -0.7431
  7664.53 13.8216 13.7530 10.6872 22.5435  3.7656 17  11.51 -0.7464
  7669.13 13.9998 13.9411 10.8150 22.9110  3.8290 21  11.65 -0.7507
  7673.75 14.1576 14.1412 10.9433 23.2660  3.8897 32  11.79 -0.7543
  7678.39 14.3321 14.3338 11.0739 23.6424  3.9554 23  11.93 -0.7584
  7683.05 14.4881 14.5387 11.2121 24.0233  4.0279 23  12.07 -0.7620
  7687.73 14.6669 14.7328 11.3420 24.4046  4.1130 20  12.22 -0.7663
  7692.43 14.8217 14.9311 11.4749 24.7785  4.2075 24  12.36 -0.7698
  7697.15 15.0037 15.1341 11.6131 25.1810  4.3096 30  12.51 -0.7740
  7701.88 15.1595 15.3481 11.7550 25.5844  4.4102 26  12.66 -0.7777
  7706.64 15.3468 15.5594 11.8889 25.9837  4.5102 27  12.81 -0.7819
  7711.41 15.5044 15.7863 12.0375 26.4077  4.6208 32  12.97 -0.7856
  7716.21 15.6898 15.9969 12.1731 26.8151  4.7319 21  13.12 -0.7897
  7721.02 15.8562 16.2291 12.3218 27.2425  4.8454 28  13.27 -0.7934
  7725.85 16.0485 16.4484 12.4657 27.6735  4.9520 32  13.43 -0.7975
  7730.70 16.2182 16.6835 12.6127 28.1000  5.0524 28  13.59 -0.8011
  7735.57 16.4139 16.9165 12.7609 28.5419  5.1552 23  13.75 -0.8050
  7740.46 16.5904 17.1486 12.9105 28.9773  5.2613 38  13.91 -0.8085
  7745.37 16.7831 17.3959 13.0663 29.4427  5.3756 35  14.08 -0.8124
  7750.29 16.9612 17.6515 13.2195 29.8952  5.4847 28  14.24 -0.8160
  7755.24 17.1632 17.8988 13.3787 30.3725  5.5973 29  14.41 -0.8199
  7760.20 17.3423 18.1541 13.5339 30.8366  5.7180 40  14.58 -0.8235
  7765.19 17.5494 18.4081 13.6905 31.3010  5.8450 32  14.75 -0.8269
  7770.19 17.7304 18.6684 13.8514 31.7916  5.9811 33  14.92 -0.8308
  7775.21 17.9366 18.9204 14.0018 32.2574  6.1105 45  15.09 -0.8346
  7780.25 18.1227 19.2082 14.1787 32.7773  6.2463 39  15.27 -0.8380
  7785.31 18.3315 19.4267 14.3350 33.2371  6.3687 38  15.45 -0.8410
  7790.39 18.5244 19.7027 14.4946 33.7628  6.5052 41  15.62 -0.8456
  7795.49 18.7385 20.0263 14.6719 34.3077  6.6426 50  15.81 -0.8494
  7800.61 18.9316 20.3003 14.8330 34.8119  6.7680 46  15.99 -0.8531
  7805.74 19.1464 20.5958 15.0140 35.3687  6.9025 40  16.17 -0.8568
  7810.90 19.3507 20.9070 15.1955 35.9238  7.0384 47  16.36 -0.8604
  7816.07 19.5689 21.1715 15.3516 36.4341  7.1689 32  16.54 -0.8643
  7821.27 19.7755 21.4630 15.5277 36.9801  7.3124 40  16.73 -0.8678
  7826.48 19.9987 21.7782 15.7024 37.5397  7.4601 67  16.92 -0.8716
  7831.71 20.2019 22.0848 15.8858 38.1254  7.6122 50  17.12 -0.8755
  7836.96 20.4315 22.3927 16.0623 38.7049  7.7651 43  17.31 -0.8795
  7842.23 20.6435 22.7047 16.2481 39.2927  7.9254 44  17.51 -0.8831
  7847.52 20.8732 23.0271 16.4342 39.9000  8.0933 41  17.70 -0.8870
  7852.83 21.0874 23.3403 16.6163 40.4858  8.2593 63  17.90 -0.8906
  7858.15 21.3176 23.6575 16.7969 41.0901  8.4311 54  18.11 -0.8946
  7863.50 21.5337 23.9854 16.9891 41.7048  8.6145 57  18.31 -0.8980
  7868.87 21.7664 24.3032 17.1745 42.3426  8.8041 53  18.51 -0.9024
  7874.25 21.9817 24.6488 17.3796 43.0004  8.9995 63  18.72 -0.9059
  7879.65 22.2207 24.9776 17.5673 43.6413  9.1919 64  18.93 -0.9100
  7885.07 22.4377 25.3004 17.7568 44.2787  9.3847 60  19.14 -0.9137
  7890.52 22.6821 25.6612 17.9662 44.9846  9.5904 69  19.35 -0.9178
  7895.98 22.9059 26.0076 18.1521 45.6132  9.7810 56  19.57 -0.9214
  7901.45 23.1491 26.3568 18.3613 46.3263  9.9929 58  19.78 -0.9255
  7906.95 23.3783 26.7065 18.5573 46.9877 10.1966 74  20.00 -0.9290
